# GW Macroscopic dielectric function without local field effects 
# Scissor operator energy =  0.8000 [eV]
# Tolerance =  0.0200 0.0200
# npweps  = 51
# npwwfn  = 137
# nbands  = 8
# loband  = 2
# nkibz   = 8
# nkbz    = 8
# Lorentzian broadening =  0.1000 [eV]
# List of q-points for the optical limit:
# q =  0.938821, 0.000000, 0.000000, [Reduced coords] 
# q =  0.000000, 0.938821, 0.000000, [Reduced coords] 
# q =  0.000000, 0.000000, 0.938821, [Reduced coords] 
# q =  0.000000, 0.813043, 0.813043, [Reduced coords] 
# q =  0.813043, 0.000000, 0.813043, [Reduced coords] 
# q =  0.813043, 0.813043, 0.000000, [Reduced coords] 
# omega [eV]    RE(eps(q=1)) IM(eps(q=1) RE(eps(q=2) ) ... DOS   IDOS
  0.000   38.0510    0.0000   37.2299    0.0000   35.8295    0.0000   31.7897    0.0000   32.8679    0.0000   33.4336    0.0000    0.0000    0.0000
  0.100   38.0755    0.0491   37.2537    0.0478   35.8522    0.0456   31.8091    0.0390   32.8882    0.0407   33.4543    0.0415    0.0000    0.0000
  0.200   38.1490    0.0985   37.3254    0.0961   35.9205    0.0915   31.8675    0.0783   32.9493    0.0818   33.5166    0.0834    0.0000    0.0000
  0.300   38.2722    0.1488   37.4456    0.1451   36.0350    0.1383   31.9654    0.1182   33.0516    0.1235   33.6209    0.1260    0.0000    0.0000
  0.400   38.4463    0.2005   37.6153    0.1955   36.1967    0.1862   32.1036    0.1592   33.1960    0.1663   33.7682    0.1697    0.0000    0.0000
  0.500   38.6726    0.2538   37.8360    0.2475   36.4069    0.2357   32.2833    0.2015   33.3837    0.2105   33.9598    0.2148    0.0000    0.0000
  0.600   38.9532    0.3095   38.1096    0.3018   36.6674    0.2874   32.5060    0.2455   33.6164    0.2566   34.1972    0.2618    0.0000    0.0000
  0.700   39.2906    0.3680   38.4387    0.3589   36.9808    0.3417   32.7737    0.2918   33.8962    0.3050   34.4825    0.3111    0.0000    0.0000
  0.800   39.6880    0.4301   38.8262    0.4194   37.3498    0.3992   33.0887    0.3407   34.2255    0.3562   34.8185    0.3634    0.0000    0.0000
  0.900   40.1493    0.4963   39.2760    0.4840   37.7780    0.4607   33.4540    0.3929   34.6075    0.4109   35.2082    0.4192    0.0000    0.0000
  1.000   40.6790    0.5677   39.7925    0.5536   38.2696    0.5269   33.8733    0.4490   35.0459    0.4697   35.6554    0.4792    0.0000    0.0000
  1.100   41.2826    0.6452   40.3811    0.6291   38.8298    0.5986   34.3505    0.5098   35.5452    0.5333   36.1648    0.5442    0.0000    0.0000
  1.200   41.9669    0.7300   41.0484    0.7118   39.4646    0.6772   34.8910    0.5761   36.1106    0.6029   36.7417    0.6152    0.0000    0.0000
  1.300   42.7397    0.8235   41.8019    0.8031   40.1814    0.7637   35.5006    0.6491   36.7486    0.6795   37.3927    0.6934    0.0000    0.0000
  1.400   43.6105    0.9276   42.6510    0.9045   40.9888    0.8600   36.1865    0.7301   37.4669    0.7646   38.1256    0.7803    0.0000    0.0000
  1.500   44.5906    1.0444   43.6068    1.0184   41.8974    0.9680   36.9576    0.8207   38.2744    0.8598   38.9498    0.8776    0.0000    0.0000
  1.600   45.6940    1.1765   44.6827    1.1473   42.9199    1.0901   37.8240    0.9230   39.1824    0.9674   39.8765    0.9875    0.0000    0.0000
  1.700   46.9372    1.3275   45.8952    1.2946   44.0717    1.2296   38.7986    1.0394   40.2042    1.0901   40.9195    1.1128    0.0000    0.0000
  1.800   48.3411    1.5018   47.2643    1.4647   45.3718    1.3905   39.8969    1.1734   41.3562    1.2313   42.0956    1.2572    0.0000    0.0000
  1.900   49.9309    1.7051   48.8149    1.6632   46.8435    1.5781   41.1380    1.3291   42.6589    1.3957   43.4258    1.4253    0.0000    0.0000
  2.000   51.7388    1.9452   50.5783    1.8976   48.5164    1.7996   42.5458    1.5124   44.1377    1.5894   44.9360    1.6235    0.0000    0.0000
  2.100   53.8052    2.2325   52.5942    2.1782   50.4278    2.0644   44.1506    1.7307   45.8248    1.8205   46.6595    1.8601    0.0000    0.0000
  2.200   56.1825    2.5814   54.9139    2.5191   52.6257    2.3860   45.9915    1.9948   47.7619    2.1005   48.6389    2.1470    0.0000    0.0000
  2.300   58.9394    3.0124   57.6046    2.9407   55.1735    2.7831   48.1193    2.3197   50.0034    2.4456   50.9303    2.5009    0.0000    0.0000
  2.400   62.1682    3.5557   60.7567    3.4724   58.1560    3.2836   50.6020    2.7271   52.6222    2.8794   53.6088    2.9464    0.0000    0.0000
  2.500   65.9953    4.2569   64.4947    4.1594   61.6896    3.9294   53.5329    3.2503   55.7184    3.4379   56.7776    3.5207    0.0000    0.0000
  2.600   70.6000    5.1883   68.9948    5.0732   65.9393    4.7871   57.0430    3.9411   59.4334    4.1776   60.5831    4.2833    0.0000    0.0000
  2.700   76.2449    6.4702   74.5156    6.3328   71.1468    5.9673   61.3234    4.8857   63.9738    5.1930   65.2400    5.3333    0.0000    0.0000
  2.800   83.3309    8.3159   81.4528    8.1504   77.6812    7.6665   66.6642    6.2355   69.6549    6.6509   71.0767    6.8475    0.0000    0.0000
  2.900   92.5008   11.1356   90.4427   10.9349   86.1345   10.2615   73.5277    8.2796   76.9815    8.8720   78.6223    9.1691    0.0003    0.0000
  3.000  104.8443   15.8056  102.5655   15.5636   97.5104   14.5545   82.6918   11.6291   86.8080   12.5389   88.7768   13.0383    0.0232    0.0001
  3.100  122.2943   24.4803  119.7401   24.2045  113.5943   22.5061   95.5280   17.7698  100.6510   19.3228  103.1423   20.3015    0.6884    0.0026
  3.200  148.0557   43.5539  145.1109   43.3297  137.4166   39.8748  114.3019   31.0548  121.0607   34.1491  124.3378   36.5310    8.3263    0.0332
  3.300  180.9164   95.6892  176.7889   95.5683  169.0897   87.1971  138.2912   66.4059  147.7626   74.4862  150.5018   81.7768   42.4424    0.1892
  3.400  145.7366  211.7772  143.8445  211.5303  140.1329  203.6409  126.1997  144.4103  123.5009  171.6256  108.8859  180.0502   92.9901    0.5309
  3.500   -7.3216  210.1170  -20.7670  203.2965  -16.8254  194.7457   13.8835  174.7734   -9.5261  161.4606  -12.4432  145.2277   87.4439    0.8523
  3.600  -22.3468  103.7356  -25.8298   95.5218  -27.8823   92.3144  -18.6889   87.2074  -10.8447   77.0154   -2.4481   70.8117   36.8484    0.9877
  3.700   26.9235   79.3364   21.5686   70.5484   15.7368   63.4686   17.3674   58.8853   28.1062   59.4462   36.6613   57.9202   24.3854    1.0773
  3.800   59.3640  123.4104   57.5076  104.0824   54.0585   85.8476   45.1528   81.6653   54.4823   90.2402   66.1082   90.1756   59.9493    1.2976
  3.900  -17.2987  165.3251    4.6424  153.6578   20.4638  143.8476    5.8109  108.0999    9.2906  124.1945   23.1594  143.2234   79.3182    1.5891
  4.000  -37.5620   93.8889  -24.9167   99.3970  -17.5140   96.0509    2.0630   71.7352   -7.0621   81.7405  -13.6100   98.3763   57.3419    1.7998
  4.100    1.2524   83.5007    6.1263   93.7933   17.2872   92.4368   26.2676   81.9577   20.2363   86.7691    3.1800   93.0659   57.4819    2.0111
  4.200   10.8406  135.5843   -0.7986  146.2045    1.3716  150.7633   12.7540  127.5382    0.2949  130.4169   -5.2644  122.0315   72.2671    2.2766
  4.300  -75.2909  129.3099  -81.2959  117.0548  -81.5696  116.3299  -60.0386  107.6814  -61.3979   98.9900  -59.7230   95.5755   61.9412    2.5043
  4.400  -68.4960   77.0226  -65.0079   67.3788  -64.4126   62.7749  -49.9764   60.6632  -46.4141   60.9446  -43.1565   59.4678   66.3323    2.7480
  4.500  -64.1973   64.2389  -55.5870   63.8835  -47.8476   62.1972  -41.6444   51.6371  -38.8603   55.9566  -32.5232   60.9397   91.4334    3.0841
  4.600  -53.5627   47.8070  -55.8641   47.0562  -56.1837   48.8803  -32.3834   38.3014  -34.1281   43.9763  -35.0354   50.9482   80.2018    3.3788
  4.700  -40.2358   48.9749  -38.7864   37.1627  -41.1326   31.6667  -15.3781   35.1936  -18.8311   44.4293  -19.7018   51.0181   51.0446    3.5664
  4.800  -54.3738   50.5504  -31.5377   50.9288  -22.0305   35.3521   -4.9190   54.5151  -22.7570   54.5009  -31.7197   66.8342   46.1279    3.7359
  4.900  -49.4657   29.5696  -47.4426   41.5053  -27.9101   53.7464  -29.6592   66.4588  -32.3766   57.8872  -47.9401   48.9375   43.4035    3.8954
  5.000  -35.2628   21.8035  -36.8201   26.0648  -37.5061   35.7042  -41.0177   40.1337  -40.6213   37.0146  -40.6173   29.9168   23.8610    3.9831
  5.100  -18.7772   23.6397  -19.2094   25.5719  -20.2098   29.3159  -23.5197   28.7849  -23.6887   27.4567  -23.3060   24.9676   18.3908    4.0507
  5.200   -4.7559   41.8695   -3.4640   43.9309   -3.5472   47.1074   -6.4678   40.4048   -7.0114   39.1805   -8.1612   37.4534   57.9515    4.2636
  5.300  -28.8609   69.4607  -30.7813   77.9817  -31.6698   82.4377  -23.7928   67.9146  -24.1006   65.7241  -23.2007   58.9349   96.5938    4.6186
  5.400  -47.8297   45.0329  -57.9184   45.5842  -64.7915   47.9009  -45.3546   43.8538  -41.0811   43.5608  -33.2607   43.5136   77.3374    4.9028
  5.500  -39.4164   43.0373  -46.0653   32.9986  -52.6454   28.0818  -32.1686   36.8210  -30.3450   44.1259  -28.1071   52.6197   74.7686    5.1776
  5.600  -54.4860   41.8308  -47.7614   33.3617  -47.0937   24.2113  -41.6082   47.0588  -50.4377   49.1755  -55.0363   53.3389   80.5546    5.4736
  5.700  -52.7454   24.8413  -45.6882   23.9788  -40.1387   18.6364  -47.6506   30.4589  -52.4494   27.3110  -58.1581   27.0326   53.5039    5.6702
  5.800  -49.1163   23.0827  -44.5491   25.7100  -34.1397   25.2003  -45.3938   28.9886  -46.0593   23.3062  -48.3582   19.5769   42.9508    5.8281
  5.900  -50.7793   14.7837  -49.5571   18.8092  -47.4079   25.5920  -50.7599   19.1043  -48.3955   18.5914  -48.2054   16.2575   33.0198    5.9494
  6.000  -45.0758    7.8967  -45.7731    9.5661  -46.6772   12.0027  -44.9664    9.5549  -44.7440    9.6563  -44.1693    8.7342   11.9257    5.9933
  6.100  -39.7267    5.1347  -40.1330    5.7409  -40.6173    6.6026  -38.9541    5.8643  -39.0344    5.8136  -38.7281    5.4435    1.7334    5.9996
  6.200  -35.6390    3.7801  -35.7830    4.0472  -35.9057    4.4187  -34.4574    4.1495  -34.6256    4.0948  -34.5056    3.9170    0.0981    6.0000
  6.300  -32.4185    2.9805  -32.4127    3.1154  -32.3320    3.2992  -31.0030    3.1807  -31.2203    3.1418  -31.2091    3.0454    0.0021    6.0000
  6.400  -29.7865    2.4506  -29.6951    2.5249  -29.5003    2.6240  -28.2386    2.5604  -28.4865    2.5352  -28.5403    2.4788    0.0000    6.0000
  6.500  -27.5744    2.0724  -27.4327    2.1154  -27.1721    2.1713  -25.9545    2.1295  -26.2214    2.1140  -26.3152    2.0794    0.0000    6.0000
  6.600  -25.6760    1.7881  -25.5042    1.8136  -25.2053    1.8456  -24.0215    1.8129  -24.2995    1.8039  -24.4188    1.7822    0.0000    6.0000
  6.700  -24.0205    1.5664  -23.8306    1.5814  -23.5097    1.5994  -22.3554    1.5704  -22.6394    1.5660  -22.7749    1.5522    0.0000    6.0000
  6.800  -22.5585    1.3886  -22.3582    1.3971  -22.0254    1.4063  -20.8987    1.3790  -21.1850    1.3777  -21.3309    1.3689    0.0000    6.0000
  6.900  -21.2544    1.2429  -21.0484    1.2471  -20.7101    1.2508  -19.6101    1.2243  -19.8965    1.2250  -20.0488    1.2197    0.0000    6.0000
  7.000  -20.0811    1.1213  -19.8728    1.1228  -19.5333    1.1228  -18.4595    1.0968  -18.7442    1.0989  -18.9003    1.0959    0.0000    6.0000
  7.100  -19.0181    1.0185  -18.8097    1.0181  -18.4718    1.0156  -17.4238    0.9901  -17.7057    0.9931  -17.8638    0.9917    0.0000    6.0000
  7.200  -18.0492    0.9305  -17.8420    0.9288  -17.5076    0.9247  -16.4850    0.8997  -16.7634    0.9033  -16.9222    0.9029    0.0000    6.0000
  7.300  -17.1611    0.8546  -16.9563    0.8519  -16.6267    0.8468  -15.6289    0.8223  -15.9034    0.8262  -16.0621    0.8266    0.0000    6.0000
  7.400  -16.3434    0.7884  -16.1416    0.7852  -15.8176    0.7793  -14.8440    0.7555  -15.1145    0.7596  -15.2725    0.7603    0.0000    6.0000
  7.500  -15.5870    0.7305  -15.3887    0.7269  -15.0710    0.7205  -14.1209    0.6975  -14.3872    0.7015  -14.5443    0.7025    0.0000    6.0000
  7.600  -14.8846    0.6796  -14.6902    0.6757  -14.3791    0.6690  -13.4515    0.6469  -13.7140    0.6507  -13.8700    0.6517    0.0000    6.0000
  7.700  -14.2298    0.6348  -14.0394    0.6307  -13.7351    0.6238  -12.8292    0.6028  -13.0880    0.6061  -13.2429    0.6070    0.0000    6.0000
  7.800  -13.6169    0.5952  -13.4307    0.5910  -13.1333    0.5841  -12.2479    0.5643  -12.5036    0.5670  -12.6577    0.5676    0.0000    6.0000
  7.900  -13.0410    0.5606  -12.8590    0.5564  -12.5685    0.5494  -11.7023    0.5311  -11.9557    0.5328  -12.1093    0.5330    0.0000    6.0000
  8.000  -12.4973    0.5307  -12.3196    0.5264  -12.0360    0.5195  -11.1875    0.5031  -11.4396    0.5034  -11.5933    0.5027    0.0000    6.0000
  8.100  -11.9813    0.5056  -11.8079    0.5013  -11.5312    0.4944  -10.6981    0.4807  -10.9506    0.4787  -11.1054    0.4767    0.0000    6.0000
  8.200  -11.4882    0.4861  -11.3190    0.4819  -11.0492    0.4750  -10.2287    0.4654  -10.4841    0.4595  -10.6415    0.4553    0.0020    6.0000
  8.300  -11.0121    0.4745  -10.8471    0.4704  -10.5842    0.4635   -9.7718    0.4612  -10.0345    0.4475  -10.1968    0.4395    0.0811    6.0003
  8.400  -10.5455    0.4767  -10.3847    0.4731  -10.1287    0.4658   -9.3177    0.4797   -9.5943    0.4476   -9.7655    0.4318    1.2698    6.0050
  8.500  -10.0801    0.5119   -9.9241    0.5101   -9.6750    0.5018   -8.8617    0.5615   -9.1530    0.4740   -9.3397    0.4389    7.8696    6.0339
  8.600   -9.6492    0.6240   -9.5063    0.6254   -9.2619    0.6147   -8.5370    0.7707   -8.7081    0.5772   -8.9081    0.4814   21.5568    6.1131
  8.700   -9.3099    0.7583   -9.1780    0.7369   -8.9396    0.7295   -8.3196    0.7293   -8.4362    0.8344   -8.4810    0.6333   31.5788    6.2292
  8.800   -9.0378    0.8688   -8.8892    0.8404   -8.6594    0.8258   -7.8072    0.8293   -8.3122    0.7470   -8.3526    0.9223   30.3814    6.3408
  8.900   -8.7172    1.0439   -8.5620    1.0159   -8.3343    0.9985   -7.4824    1.4994   -7.8273    0.7730   -8.2488    0.7166   27.7948    6.4430
  9.000   -8.7670    1.2879   -8.5888    1.2757   -8.3612    1.2469   -8.4379    1.7011   -7.4653    1.3208   -7.7759    0.7002   35.4657    6.5733
  9.100   -8.8659    1.2103   -8.7159    1.2244   -8.4566    1.2038   -8.3848    0.8462   -8.2588    1.6042   -7.3895    1.1234   41.7796    6.7268
  9.200   -8.8831    0.9530   -8.7446    0.9551   -8.5109    0.9757   -7.9460    0.5130   -8.2601    0.8022   -7.9765    1.4952   31.7585    6.8435
  9.300   -8.6162    0.5656   -8.4788    0.5658   -8.2676    0.5733   -7.5572    0.3834   -7.8297    0.4854   -8.0566    0.7765   23.8692    6.9313
  9.400   -8.2299    0.4049   -8.0951    0.4064   -7.8878    0.4091   -7.2306    0.3275   -7.4583    0.3705   -7.6535    0.4691   31.5057    7.0470
  9.500   -7.8926    0.3393   -7.7606    0.3414   -7.5553    0.3435   -6.9478    0.2915   -7.1427    0.3161   -7.2950    0.3646   41.6658    7.2002
  9.600   -7.5973    0.3134   -7.4681    0.3190   -7.2665    0.3252   -6.6830    0.2744   -6.8642    0.2982   -7.0061    0.3296   67.7094    7.4490
  9.700   -7.3372    0.2940   -7.2138    0.3016   -7.0162    0.3127   -6.4500    0.2718   -6.6294    0.2848   -6.7521    0.2934   76.7641    7.7311
  9.800   -7.0789    0.2858   -6.9575    0.2971   -6.7692    0.3267   -6.2227    0.2749   -6.3917    0.2800   -6.5017    0.2847   50.7621    7.9099
  9.900   -6.8456    0.3246   -6.7435    0.3549   -6.6269    0.3752   -6.0450    0.3183   -6.2033    0.3168   -6.3017    0.3184   40.8613    8.0850
 10.000   -6.7251    0.3678   -6.6546    0.3412   -6.4885    0.2921   -5.9349    0.2984   -6.0809    0.2998   -6.1744    0.3039   33.3953    8.1311
